#http://catserver.ing.iac.es/filter/filtercurve.php?format=txt&filter=182
#
# ING Filter Throughput Data
# Serial Number : 182
# Filtername    : STROMHbW
# Filtersystem  : Stromgren
# Passband      : Hbeta 4861/170
# FWHM          : 175
# Cosmetics     : 
# Measured      : 2005-03-02 12:02:01
# Wavelength Throughput
# nm %
450 0.0016
450.5 0.0017
451 0.0019
451.5 0.0024
452 0.0029
452.5 0.0034
453 0.0039
453.5 0.0048
454 0.0057
454.5 0.0073
455 0.0088
455.5 0.0127
456 0.0166
456.5 0.0222
457 0.0278
457.5 0.0355
458 0.0432
458.5 0.0517
459 0.0602
459.5 0.0669
460 0.0736
460.5 0.0779
461 0.0822
461.5 0.0856
462 0.0889
462.5 0.0933
463 0.0976
463.5 0.1042
464 0.1108
464.5 0.1215
465 0.1322
465.5 0.1481
466 0.1641
466.5 0.1898
467 0.2154
467.5 0.2564
468 0.2974
468.5 0.3619
469 0.4264
469.5 0.5324
470 0.6383
470.5 0.8217
471 1.0051
471.5 1.3314
472 1.6577
472.5 2.2477
473 2.8377
473.5 3.9572
474 5.0767
474.5 7.1976
475 9.3185
475.5 13.2628
476 17.2072
476.5 23.6617
477 30.1162
477.5 38.8727
478 47.6292
478.5 56.593
479 65.5569
479.5 72.0777
480 78.5986
480.5 81.924
481 85.2495
481.5 86.3494
482 87.4494
482.5 87.7767
483 88.1039
483.5 88.2037
484 88.3035
484.5 88.4205
485 88.5376
485.5 88.6591
486 88.7806
486.5 88.9399
487 89.0993
487.5 89.1098
488 89.1203
488.5 89.0197
489 88.9191
489.5 88.3703
490 87.8215
490.5 86.3595
491 84.8975
491.5 81.539
492 78.1805
492.5 72.8254
493 67.4704
493.5 60.3821
494 53.2937
494.5 45.9433
495 38.5929
495.5 32.314
496 26.035
496.5 21.4461
497 16.8571
497.5 13.7527
498 10.6484
498.5 8.6742
499 6.6999
499.5 5.4562
500 4.2126
500.5 3.4531
501 2.6936
501.5 2.2146
502 1.7355
502.5 1.4389
503 1.1423
503.5 0.9521
504 0.7619
504.5 0.6421
505 0.5224
505.5 0.4445
506 0.3666
506.5 0.3135
507 0.2605
507.5 0.2252
508 0.1899
508.5 0.1667
509 0.1435
509.5 0.1262
510 0.1089
510.5 0.0975
511 0.0861
511.5 0.0777
512 0.0694
512.5 0.0634
513 0.0573
513.5 0.0527
514 0.048
514.5 0.0449
515 0.0417
515.5 0.0389
516 0.0362
516.5 0.0346
517 0.033
517.5 0.0322
518 0.0314
518.5 0.0304
519 0.0295
519.5 0.0289
520 0.0284
520.5 0.0288
521 0.0291
521.5 0.0293
522 0.0295
522.5 0.0306
523 0.0318
523.5 0.0328
524 0.0337
524.5 0.0352
525 0.0367
